i	Alt (km)	T (K) 14-14.5UT Terr (K)
      77.1790      220.980      17.9300
      77.3290      220.740      13.5400
      77.4790      219.990      10.2900
      77.6290      219.320      7.95000
      77.7790      219.450      6.29000
      77.9290      219.980      5.10000
      78.0790      220.810      4.24000
      78.2290      221.410      3.59000
      78.3790      221.850      3.09000
      78.5290      221.970      2.69000
      78.6790      222.060      2.39000
      78.8290      222.000      2.14000
      78.9790      221.900      1.95000
      79.1290      221.650      1.78000
      79.2790      221.440      1.65000
      79.4290      221.250      1.54000
      79.5790      221.000      1.45000
      79.7290      220.740      1.37000
      79.8790      220.450      1.30000
      80.0290      220.170      1.24000
      80.1790      219.940      1.19000
      80.3290      219.660      1.15000
      80.4790      219.440      1.11000
      80.6290      219.300      1.08000
      80.7790      219.270      1.05000
      80.9290      219.370      1.02000
      81.0790      219.510      1.00000
      81.2290      219.710     0.980000
      81.3790      219.920     0.960000
      81.5290      220.190     0.950000
      81.6790      220.480     0.930000
      81.8290      220.770     0.920000
      81.9790      221.080     0.900000
      82.1290      221.370     0.890000
      82.2790      221.660     0.880000
      82.4290      221.950     0.870000
      82.5790      222.220     0.860000
      82.7290      222.450     0.850000
      82.8790      222.610     0.840000
      83.0290      222.760     0.830000
      83.1790      222.880     0.820000
      83.3290      222.980     0.820000
      83.4790      223.020     0.810000
      83.6290      222.970     0.810000
      83.7790      222.840     0.800000
      83.9290      222.620     0.800000
      84.0790      222.330     0.790000
      84.2290      221.970     0.790000
      84.3790      221.530     0.790000
      84.5290      221.050     0.780000
      84.6790      220.490     0.780000
      84.8290      219.900     0.780000
      84.9790      219.270     0.770000
      85.1290      218.620     0.770000
      85.2790      217.980     0.770000
      85.4290      217.370     0.770000
      85.5790      216.780     0.760000
      85.7290      216.170     0.760000
      85.8790      215.570     0.760000
      86.0290      214.980     0.760000
      86.1790      214.400     0.760000
      86.3290      213.810     0.760000
      86.4790      213.220     0.760000
      86.6290      212.600     0.760000
      86.7790      211.970     0.760000
      86.9290      211.290     0.760000
      87.0790      210.560     0.760000
      87.2290      209.790     0.750000
      87.3790      208.970     0.750000
      87.5290      208.120     0.750000
      87.6790      207.250     0.750000
      87.8290      206.370     0.750000
      87.9790      205.490     0.750000
      88.1290      204.630     0.750000
      88.2790      203.810     0.750000
      88.4290      203.030     0.740000
      88.5790      202.270     0.740000
      88.7290      201.520     0.740000
      88.8790      200.790     0.740000
      89.0290      200.060     0.740000
      89.1790      199.310     0.740000
      89.3290      198.560     0.730000
      89.4790      197.790     0.730000
      89.6290      197.020     0.730000
      89.7790      196.280     0.730000
      89.9290      195.600     0.720000
      90.0790      194.950     0.720000
      90.2290      194.360     0.720000
      90.3790      193.820     0.720000
      90.5290      193.280     0.720000
      90.6790      192.820     0.720000
      90.8290      192.390     0.720000
      90.9790      192.030     0.720000
      91.1290      191.740     0.720000
      91.2790      191.500     0.720000
      91.4290      191.320     0.730000
      91.5790      191.120     0.730000
      91.7290      190.920     0.730000
      91.8790      190.690     0.740000
      92.0290      190.430     0.740000
      92.1790      190.180     0.750000
      92.3290      189.890     0.750000
      92.4790      189.570     0.760000
      92.6290      189.190     0.760000
      92.7790      188.800     0.770000
      92.9290      188.370     0.780000
      93.0790      187.930     0.780000
      93.2290      187.480     0.790000
      93.3790      187.020     0.800000
      93.5290      186.560     0.810000
      93.6790      186.120     0.810000
      93.8290      185.680     0.820000
      93.9790      185.250     0.830000
      94.1290      184.840     0.840000
      94.2790      184.460     0.860000
      94.4290      184.090     0.870000
      94.5790      183.720     0.880000
      94.7290      183.380     0.900000
      94.8790      183.020     0.910000
      95.0290      182.660     0.930000
      95.1790      182.290     0.940000
      95.3290      181.920     0.960000
      95.4790      181.560     0.980000
      95.6290      181.260      1.01000
      95.7790      181.060      1.03000
      95.9290      180.930      1.06000
      96.0790      180.920      1.09000
      96.2290      181.040      1.13000
      96.3790      181.280      1.17000
      96.5290      181.660      1.21000
      96.6790      182.180      1.26000
      96.8290      182.820      1.31000
      96.9790      183.600      1.38000
      97.1290      184.580      1.45000
      97.2790      185.740      1.53000
      97.4290      187.070      1.62000
      97.5790      188.530      1.72000
      97.7290      190.120      1.84000
      97.8790      191.810      1.98000
      98.0290      193.570      2.13000
      98.1790      195.320      2.30000
      98.3290      196.990      2.50000
      98.4790      198.640      2.71000
      98.6290      200.310      2.95000
      98.7790      202.090      3.21000
      98.9290      203.940      3.51000
      99.0790      206.010      3.84000
      99.2290      208.310      4.20000
      99.3790      211.000      4.60000
      99.5290      214.520      5.05000
      99.6790      218.800      5.56000
      99.8290      223.980      6.16000
      99.9790      230.040      6.83000
      100.129      236.800      7.56000
      100.279      244.050      8.35000
      100.429      251.150      9.21000
      100.579      257.650      10.0500
      100.729      263.120      10.8400
      100.879      267.010      11.5400
      101.029      268.830      12.0900
      101.179      268.580      12.4800
      101.329      265.440      12.6500
      101.479      260.130      12.6200
      101.629      252.720      12.3800
      101.779      244.280      12.0200
      101.929      234.810      11.6100
      102.079      225.150      11.1500
      102.229      215.980      10.7000
      102.379      207.810      10.3300
      102.529      200.750      10.0100
      102.679      195.170      9.77000
      102.829      191.090      9.63000
      102.979      188.340      9.59000
      103.129      187.140      9.65000
      103.279      187.610      9.82000
      103.429      189.890      10.1300
      103.579      192.720      10.5000
      103.729      195.260      10.8500
      103.879      197.770      11.1700
      104.029      199.390      11.4100
      104.179      199.510      11.5100
      104.329      198.350      11.5000
      105.979      178.930      11.5800
      106.129      183.930      12.5000
      106.279      189.790      13.5700
      106.429      195.500      14.7000
      106.579      201.440      16.0000
      106.729      207.410      17.3700
      106.879      212.070      18.6700
      107.029      215.590      19.8700
      108.079      187.290      19.6800
      108.229      180.350      19.1600
      108.379      175.500      18.9900
      108.529      172.740      19.2300
